File: batch/data_set3.txt
"125332 - C:\Documents and Settings\User\My Documents\Homogeneous-catalysis\Allen, Lucy\lka1079.008.spc"
"Wavelength nm.","Abs."
200.00,0.32446
203.00,0.27332
206.00,0.34338
209.00,0.40479
212.00,0.34058
215.00,0.30920
218.00,0.27380
221.00,0.29053
224.00,0.94153
227.00,1.04810
230.00,0.98511
233.00,0.88000
236.00,0.75732
239.00,0.64343
242.00,0.55750
245.00,0.48950
248.00,0.42383
251.00,0.35706
254.00,0.29590
257.00,0.25012
260.00,0.21704
263.00,0.19360
266.00,0.17566
269.00,0.15881
272.00,0.13965
275.00,0.11963
278.00,0.10046
281.00,0.08337
284.00,0.06934
287.00,0.05762
290.00,0.04773
293.00,0.03882
296.00,0.03101
299.00,0.05347
302.00,0.06860
305.00,0.06177
308.00,0.05457
311.00,0.04797
314.00,0.04211
317.00,0.03711
320.00,0.03345
323.00,0.03101
326.00,0.02893
329.00,0.02710
332.00,0.02539
335.00,0.02356
338.00,0.02148
341.00,0.01855
344.00,0.01587
347.00,0.01355
350.00,0.01160
353.00,0.00952
356.00,0.00781
359.00,0.00647
362.00,0.00549
365.00,0.00488
368.00,0.00464
371.00,0.00427
374.00,0.00403
377.00,0.00391
380.00,0.00366
383.00,0.00354
386.00,0.00342
389.00,0.00342
392.00,0.00342
395.00,0.00342
398.00,0.00342
401.00,0.00342
404.00,0.00342
407.00,0.00342
410.00,0.00342
413.00,0.00342
416.00,0.00366
419.00,0.00354
422.00,0.00378
425.00,0.00378
428.00,0.00366
431.00,0.00354
434.00,0.00366
437.00,0.00366
440.00,0.00378
443.00,0.00366
446.00,0.00366
449.00,0.00366
452.00,0.00378
455.00,0.00378
458.00,0.00391
461.00,0.00391
464.00,0.00403
467.00,0.00415
470.00,0.00415
473.00,0.00427
476.00,0.00464
479.00,0.00476
482.00,0.00476
485.00,0.00476
488.00,0.00464
491.00,0.00464
494.00,0.00476
497.00,0.00476
500.00,0.00525
503.00,0.00549
506.00,0.00562
509.00,0.00586
512.00,0.00610
515.00,0.00684
518.00,0.00769
521.00,0.00891
524.00,0.01038
527.00,0.01123
530.00,0.01172
533.00,0.01208
536.00,0.01282
539.00,0.01343
542.00,0.01416
545.00,0.01453
548.00,0.01489
551.00,0.01550
554.00,0.01611
557.00,0.01709
560.00,0.01868
563.00,0.02124
566.00,0.02466
569.00,0.02881
572.00,0.03369
575.00,0.03918
578.00,0.04480
581.00,0.05103
584.00,0.05688
587.00,0.06226
590.00,0.06665
593.00,0.06934
596.00,0.07092
599.00,0.07239
602.00,0.07422
605.00,0.07703
608.00,0.08105
611.00,0.08594
614.00,0.09131
617.00,0.09656
620.00,0.10156
623.00,0.10547
626.00,0.10767
629.00,0.10779
632.00,0.10645
635.00,0.10437
638.00,0.10229
641.00,0.10034
644.00,0.09814
647.00,0.09583
650.00,0.09363
653.00,0.09204
656.00,0.09167
659.00,0.09167
662.00,0.09082
665.00,0.08838
668.00,0.08337
671.00,0.07581
674.00,0.06592
677.00,0.05542
680.00,0.04529
683.00,0.03625
686.00,0.02905
689.00,0.02344
692.00,0.01904
695.00,0.01550
698.00,0.01294
701.00,0.01074
704.00,0.00928
707.00,0.00806
710.00,0.00732
713.00,0.00671
716.00,0.00635
719.00,0.00610
722.00,0.00598
725.00,0.00574
728.00,0.00574
731.00,0.00574
734.00,0.00562
737.00,0.00562
740.00,0.00562
743.00,0.00574
746.00,0.00574
749.00,0.00574
752.00,0.00586
755.00,0.00574
758.00,0.00586
761.00,0.00586
764.00,0.00598
767.00,0.00598
770.00,0.00598
773.00,0.00598
776.00,0.00598
779.00,0.00610
782.00,0.00610
785.00,0.00610
788.00,0.00623
791.00,0.00635
794.00,0.00647
797.00,0.00647
800.00,0.00671
803.00,0.00671
806.00,0.00684
809.00,0.00684
812.00,0.00684
815.00,0.00696
818.00,0.00696
821.00,0.00708
824.00,0.00732
827.00,0.00745
830.00,0.00769
833.00,0.00781
836.00,0.00806
839.00,0.00818
842.00,0.00830
845.00,0.00842
848.00,0.00879
851.00,0.00916
854.00,0.00928
857.00,0.00952
860.00,0.00964
863.00,0.00989
866.00,0.01025
869.00,0.01050
872.00,0.01086
875.00,0.01111
878.00,0.01147
881.00,0.01172
884.00,0.01184
887.00,0.01196
890.00,0.01208
893.00,0.01257
896.00,0.01270
899.00,0.01270
900.00,0.01282