File: batch/data_set8.txt
"141612 - C:\Documents and Settings\User\My Documents\Homogeneous-catalysis\Allen, Lucy\lka1079.017.spc"
"Wavelength nm.","Abs."
200.00,-0.07275
203.00,-0.07336
206.00,-0.10022
209.00,-0.02771
212.00,-0.10303
215.00,-0.07947
218.00,-0.13635
221.00,0.01721
224.00,0.11841
227.00,0.10974
230.00,0.09558
233.00,0.08069
236.00,0.06543
239.00,0.05164
242.00,0.04028
245.00,0.03088
248.00,0.02271
251.00,0.01501
254.00,0.00806
257.00,0.00256
260.00,-0.00159
263.00,-0.00464
266.00,-0.00745
269.00,-0.00964
272.00,-0.01221
275.00,-0.01501
278.00,-0.01770
281.00,-0.02075
284.00,-0.02368
287.00,-0.02661
290.00,-0.02930
293.00,-0.03162
296.00,-0.03345
299.00,-0.00525
302.00,0.01526
305.00,0.01379
308.00,0.01233
311.00,0.01111
314.00,0.01013
317.00,0.00916
320.00,0.00854
323.00,0.00781
326.00,0.00745
329.00,0.00696
332.00,0.00635
335.00,0.00598
338.00,0.00562
341.00,0.00415
344.00,0.00317
347.00,0.00269
350.00,0.00256
353.00,0.00208
356.00,0.00183
359.00,0.00146
362.00,0.00122
365.00,0.00098
368.00,0.00098
371.00,0.00049
374.00,0.00037
377.00,-0.00012
380.00,-0.00024
383.00,-0.00037
386.00,-0.00073
389.00,-0.00085
392.00,-0.00085
395.00,-0.00098
398.00,-0.00098
401.00,-0.00098
404.00,-0.00110
407.00,-0.00110
410.00,-0.00110
413.00,-0.00110
416.00,-0.00098
419.00,-0.00110
422.00,-0.00110
425.00,-0.00110
428.00,-0.00110
431.00,-0.00110
434.00,-0.00110
437.00,-0.00098
440.00,-0.00085
443.00,-0.00085
446.00,-0.00085
449.00,-0.00085
452.00,-0.00073
455.00,-0.00073
458.00,-0.00073
461.00,-0.00073
464.00,-0.00073
467.00,-0.00073
470.00,-0.00073
473.00,-0.00085
476.00,-0.00073
479.00,-0.00073
482.00,-0.00085
485.00,-0.00085
488.00,-0.00098
491.00,-0.00098
494.00,-0.00098
497.00,-0.00098
500.00,-0.00098
503.00,-0.00098
506.00,-0.00098
509.00,-0.00110
512.00,-0.00110
515.00,-0.00110
518.00,-0.00110
521.00,-0.00098
524.00,-0.00098
527.00,-0.00098
530.00,-0.00098
533.00,-0.00110
536.00,-0.00134
539.00,-0.00110
542.00,-0.00122
545.00,-0.00134
548.00,-0.00146
551.00,-0.00146
554.00,-0.00159
557.00,-0.00159
560.00,-0.00159
563.00,-0.00146
566.00,-0.00110
569.00,-0.00098
572.00,-0.00073
575.00,-0.00024
578.00,0.00012
581.00,0.00073
584.00,0.00098
587.00,0.00146
590.00,0.00183
593.00,0.00195
596.00,0.00220
599.00,0.00232
602.00,0.00244
605.00,0.00269
608.00,0.00305
611.00,0.00330
614.00,0.00354
617.00,0.00378
620.00,0.00403
623.00,0.00439
626.00,0.00452
629.00,0.00464
632.00,0.00452
635.00,0.00427
638.00,0.00415
641.00,0.00415
644.00,0.00391
647.00,0.00378
650.00,0.00342
653.00,0.00330
656.00,0.00317
659.00,0.00281
662.00,0.00269
665.00,0.00232
668.00,0.00183
671.00,0.00122
674.00,0.00037
677.00,-0.00061
680.00,-0.00134
683.00,-0.00220
686.00,-0.00269
689.00,-0.00317
692.00,-0.00366
695.00,-0.00391
698.00,-0.00415
701.00,-0.00439
704.00,-0.00452
707.00,-0.00452
710.00,-0.00452
713.00,-0.00452
716.00,-0.00452
719.00,-0.00452
722.00,-0.00452
725.00,-0.00439
728.00,-0.00452
731.00,-0.00439
734.00,-0.00439
737.00,-0.00439
740.00,-0.00439
743.00,-0.00439
746.00,-0.00427
749.00,-0.00427
752.00,-0.00403
755.00,-0.00403
758.00,-0.00403
761.00,-0.00403
764.00,-0.00391
767.00,-0.00391
770.00,-0.00391
773.00,-0.00391
776.00,-0.00391
779.00,-0.00391
782.00,-0.00378
785.00,-0.00378
788.00,-0.00366
791.00,-0.00366
794.00,-0.00366
797.00,-0.00366
800.00,-0.00366
803.00,-0.00366
806.00,-0.00366
809.00,-0.00366
812.00,-0.00366
815.00,-0.00366
818.00,-0.00366
821.00,-0.00366
824.00,-0.00366
827.00,-0.00366
830.00,-0.00354
833.00,-0.00342
836.00,-0.00330
839.00,-0.00330
842.00,-0.00330
845.00,-0.00330
848.00,-0.00330
851.00,-0.00293
854.00,-0.00305
857.00,-0.00317
860.00,-0.00305
863.00,-0.00305
866.00,-0.00293
869.00,-0.00281
872.00,-0.00269
875.00,-0.00256
878.00,-0.00256
881.00,-0.00244
884.00,-0.00244
887.00,-0.00256
890.00,-0.00256
893.00,-0.00269
896.00,-0.00256
899.00,-0.00256
900.00,-0.00256