File: batch/data_set6.txt
"134340 - C:\Documents and Settings\User\My Documents\Homogeneous-catalysis\Allen, Lucy\lka1079.014.spc"
"Wavelength nm.","Abs."
200.00,0.58020
203.00,0.90344
206.00,0.60120
209.00,0.51172
212.00,0.57593
215.00,0.55176
218.00,0.42639
221.00,0.31934
224.00,0.50635
227.00,0.51477
230.00,0.49536
233.00,0.44226
236.00,0.37585
239.00,0.31482
242.00,0.26758
245.00,0.23108
248.00,0.19836
251.00,0.16675
254.00,0.13831
257.00,0.11499
260.00,0.09839
263.00,0.08691
266.00,0.07764
269.00,0.06958
272.00,0.06018
275.00,0.05029
278.00,0.04004
281.00,0.03040
284.00,0.02136
287.00,0.01367
290.00,0.00647
293.00,0.00024
296.00,-0.00500
299.00,0.02014
302.00,0.03821
305.00,0.03394
308.00,0.03027
311.00,0.02673
314.00,0.02380
317.00,0.02100
320.00,0.01941
323.00,0.01794
326.00,0.01672
329.00,0.01575
332.00,0.01465
335.00,0.01343
338.00,0.01233
341.00,0.01025
344.00,0.00842
347.00,0.00732
350.00,0.00623
353.00,0.00513
356.00,0.00427
359.00,0.00342
362.00,0.00293
365.00,0.00256
368.00,0.00220
371.00,0.00183
374.00,0.00146
377.00,0.00110
380.00,0.00085
383.00,0.00049
386.00,0.00037
389.00,0.00012
392.00,-0.00012
395.00,-0.00012
398.00,-0.00024
401.00,-0.00024
404.00,-0.00024
407.00,-0.00037
410.00,-0.00061
413.00,-0.00049
416.00,-0.00049
419.00,-0.00073
422.00,-0.00073
425.00,-0.00073
428.00,-0.00073
431.00,-0.00073
434.00,-0.00085
437.00,-0.00073
440.00,-0.00073
443.00,-0.00073
446.00,-0.00073
449.00,-0.00073
452.00,-0.00073
455.00,-0.00061
458.00,-0.00061
461.00,-0.00061
464.00,-0.00061
467.00,-0.00061
470.00,-0.00073
473.00,-0.00073
476.00,-0.00073
479.00,-0.00061
482.00,-0.00073
485.00,-0.00085
488.00,-0.00085
491.00,-0.00085
494.00,-0.00085
497.00,-0.00085
500.00,-0.00073
503.00,-0.00061
506.00,-0.00073
509.00,-0.00073
512.00,-0.00061
515.00,-0.00049
518.00,-0.00012
521.00,0.00049
524.00,0.00098
527.00,0.00122
530.00,0.00134
533.00,0.00146
536.00,0.00159
539.00,0.00183
542.00,0.00195
545.00,0.00195
548.00,0.00195
551.00,0.00220
554.00,0.00244
557.00,0.00256
560.00,0.00317
563.00,0.00403
566.00,0.00525
569.00,0.00696
572.00,0.00879
575.00,0.01086
578.00,0.01306
581.00,0.01526
584.00,0.01758
587.00,0.01965
590.00,0.02136
593.00,0.02234
596.00,0.02307
599.00,0.02356
602.00,0.02441
605.00,0.02551
608.00,0.02710
611.00,0.02881
614.00,0.03076
617.00,0.03271
620.00,0.03467
623.00,0.03613
626.00,0.03674
629.00,0.03687
632.00,0.03613
635.00,0.03516
638.00,0.03442
641.00,0.03357
644.00,0.03271
647.00,0.03162
650.00,0.03076
653.00,0.03003
656.00,0.02991
659.00,0.02979
662.00,0.02930
665.00,0.02832
668.00,0.02625
671.00,0.02332
674.00,0.01917
677.00,0.01489
680.00,0.01062
683.00,0.00684
686.00,0.00378
689.00,0.00159
692.00,-0.00037
695.00,-0.00171
698.00,-0.00281
701.00,-0.00378
704.00,-0.00452
707.00,-0.00488
710.00,-0.00525
713.00,-0.00549
716.00,-0.00549
719.00,-0.00574
722.00,-0.00586
725.00,-0.00586
728.00,-0.00586
731.00,-0.00574
734.00,-0.00562
737.00,-0.00549
740.00,-0.00537
743.00,-0.00537
746.00,-0.00525
749.00,-0.00525
752.00,-0.00525
755.00,-0.00525
758.00,-0.00513
761.00,-0.00513
764.00,-0.00500
767.00,-0.00500
770.00,-0.00500
773.00,-0.00500
776.00,-0.00500
779.00,-0.00500
782.00,-0.00488
785.00,-0.00476
788.00,-0.00476
791.00,-0.00476
794.00,-0.00464
797.00,-0.00464
800.00,-0.00464
803.00,-0.00464
806.00,-0.00464
809.00,-0.00464
812.00,-0.00464
815.00,-0.00464
818.00,-0.00464
821.00,-0.00452
824.00,-0.00452
827.00,-0.00452
830.00,-0.00439
833.00,-0.00439
836.00,-0.00427
839.00,-0.00427
842.00,-0.00427
845.00,-0.00427
848.00,-0.00391
851.00,-0.00366
854.00,-0.00366
857.00,-0.00366
860.00,-0.00354
863.00,-0.00330
866.00,-0.00317
869.00,-0.00293
872.00,-0.00293
875.00,-0.00269
878.00,-0.00256
881.00,-0.00244
884.00,-0.00244
887.00,-0.00244
890.00,-0.00244
893.00,-0.00232
896.00,-0.00220
899.00,-0.00220
900.00,-0.00220