File: docs/batch/data_set4.txt
"130801 - C:\Documents and Settings\User\My Documents\Homogeneous-catalysis\Allen, Lucy\lka1079.010.spc"
"Wavelength nm.","Abs."
200.00,0.36560
203.00,0.22754
206.00,0.26794
209.00,0.26660
212.00,0.31311
215.00,0.24231
218.00,0.14807
221.00,0.28955
224.00,0.88757
227.00,0.93555
230.00,0.87854
233.00,0.78308
236.00,0.67078
239.00,0.56787
242.00,0.48889
245.00,0.42725
248.00,0.36816
251.00,0.30908
254.00,0.25720
257.00,0.21521
260.00,0.18494
263.00,0.16455
266.00,0.14880
269.00,0.13489
272.00,0.11816
275.00,0.10046
278.00,0.08374
281.00,0.06873
284.00,0.05603
287.00,0.04517
290.00,0.03589
293.00,0.02820
296.00,0.02100
299.00,0.04431
302.00,0.05981
305.00,0.05347
308.00,0.04773
311.00,0.04175
314.00,0.03650
317.00,0.03198
320.00,0.02893
323.00,0.02661
326.00,0.02490
329.00,0.02319
332.00,0.02161
335.00,0.01990
338.00,0.01819
341.00,0.01550
344.00,0.01306
347.00,0.01086
350.00,0.00916
353.00,0.00708
356.00,0.00549
359.00,0.00427
362.00,0.00330
365.00,0.00269
368.00,0.00232
371.00,0.00183
374.00,0.00171
377.00,0.00122
380.00,0.00098
383.00,0.00085
386.00,0.00061
389.00,0.00049
392.00,0.00049
395.00,0.00037
398.00,0.00037
401.00,0.00037
404.00,0.00037
407.00,0.00024
410.00,0.00012
413.00,0.00024
416.00,0.00049
419.00,0.00012
422.00,0.00012
425.00,0.00000
428.00,0.00000
431.00,0.00000
434.00,0.00000
437.00,0.00000
440.00,0.00000
443.00,-0.00012
446.00,0.00000
449.00,0.00012
452.00,0.00000
455.00,0.00012
458.00,0.00037
461.00,0.00037
464.00,0.00037
467.00,0.00037
470.00,0.00037
473.00,0.00037
476.00,0.00049
479.00,0.00049
482.00,0.00037
485.00,0.00000
488.00,0.00000
491.00,0.00000
494.00,0.00000
497.00,0.00012
500.00,0.00037
503.00,0.00073
506.00,0.00085
509.00,0.00098
512.00,0.00110
515.00,0.00171
518.00,0.00244
521.00,0.00354
524.00,0.00476
527.00,0.00549
530.00,0.00598
533.00,0.00623
536.00,0.00684
539.00,0.00732
542.00,0.00793
545.00,0.00818
548.00,0.00842
551.00,0.00891
554.00,0.00940
557.00,0.01013
560.00,0.01147
563.00,0.01367
566.00,0.01672
569.00,0.02039
572.00,0.02466
575.00,0.02930
578.00,0.03430
581.00,0.03967
584.00,0.04480
587.00,0.04944
590.00,0.05322
593.00,0.05566
596.00,0.05701
599.00,0.05823
602.00,0.05981
605.00,0.06226
608.00,0.06580
611.00,0.07019
614.00,0.07483
617.00,0.07935
620.00,0.08386
623.00,0.08752
626.00,0.08936
629.00,0.08960
632.00,0.08813
635.00,0.08618
638.00,0.08423
641.00,0.08252
644.00,0.08069
647.00,0.07849
650.00,0.07654
653.00,0.07532
656.00,0.07507
659.00,0.07483
662.00,0.07422
665.00,0.07202
668.00,0.06750
671.00,0.06079
674.00,0.05212
677.00,0.04272
680.00,0.03369
683.00,0.02588
686.00,0.01953
689.00,0.01477
692.00,0.01074
695.00,0.00769
698.00,0.00537
701.00,0.00354
704.00,0.00220
707.00,0.00134
710.00,0.00073
713.00,0.00012
716.00,-0.00012
719.00,-0.00037
722.00,-0.00061
725.00,-0.00073
728.00,-0.00085
731.00,-0.00073
734.00,-0.00085
737.00,-0.00085
740.00,-0.00073
743.00,-0.00073
746.00,-0.00073
749.00,-0.00073
752.00,-0.00073
755.00,-0.00073
758.00,-0.00073
761.00,-0.00073
764.00,-0.00061
767.00,-0.00061
770.00,-0.00049
773.00,-0.00037
776.00,-0.00024
779.00,-0.00024
782.00,-0.00012
785.00,-0.00012
788.00,0.00000
791.00,0.00024
794.00,0.00037
797.00,0.00037
800.00,0.00049
803.00,0.00049
806.00,0.00061
809.00,0.00061
812.00,0.00085
815.00,0.00085
818.00,0.00098
821.00,0.00110
824.00,0.00110
827.00,0.00122
830.00,0.00159
833.00,0.00171
836.00,0.00183
839.00,0.00183
842.00,0.00195
845.00,0.00232
848.00,0.00256
851.00,0.00293
854.00,0.00293
857.00,0.00317
860.00,0.00342
863.00,0.00354
866.00,0.00391
869.00,0.00415
872.00,0.00439
875.00,0.00464
878.00,0.00488
881.00,0.00525
884.00,0.00537
887.00,0.00537
890.00,0.00562
893.00,0.00586
896.00,0.00598
899.00,0.00623
900.00,0.00623