File: docs/batch/data_set5.txt
"132013 - C:\Documents and Settings\User\My Documents\Homogeneous-catalysis\Allen, Lucy\lka1079.012.spc"
"Wavelength nm.","Abs."
200.00,0.27917
203.00,0.11597
206.00,0.15466
209.00,0.20227
212.00,0.09534
215.00,0.10999
218.00,0.13733
221.00,0.23792
224.00,0.71387
227.00,0.73157
230.00,0.67444
233.00,0.59900
236.00,0.51221
239.00,0.43091
242.00,0.36829
245.00,0.32068
248.00,0.27588
251.00,0.23071
254.00,0.18945
257.00,0.15637
260.00,0.13367
263.00,0.11792
266.00,0.10596
269.00,0.09509
272.00,0.08240
275.00,0.06873
278.00,0.05591
281.00,0.04370
284.00,0.03333
287.00,0.02454
290.00,0.01672
293.00,0.01001
296.00,0.00415
299.00,0.02844
302.00,0.04517
305.00,0.04004
308.00,0.03564
311.00,0.03101
314.00,0.02698
317.00,0.02332
320.00,0.02087
323.00,0.01904
326.00,0.01746
329.00,0.01624
332.00,0.01489
335.00,0.01367
338.00,0.01196
341.00,0.00977
344.00,0.00769
347.00,0.00598
350.00,0.00464
353.00,0.00305
356.00,0.00171
359.00,0.00073
362.00,0.00000
365.00,-0.00049
368.00,-0.00085
371.00,-0.00122
374.00,-0.00146
377.00,-0.00171
380.00,-0.00195
383.00,-0.00220
386.00,-0.00232
389.00,-0.00244
392.00,-0.00256
395.00,-0.00256
398.00,-0.00256
401.00,-0.00256
404.00,-0.00256
407.00,-0.00256
410.00,-0.00269
413.00,-0.00256
416.00,-0.00244
419.00,-0.00256
422.00,-0.00256
425.00,-0.00256
428.00,-0.00256
431.00,-0.00256
434.00,-0.00256
437.00,-0.00256
440.00,-0.00256
443.00,-0.00256
446.00,-0.00244
449.00,-0.00244
452.00,-0.00244
455.00,-0.00232
458.00,-0.00232
461.00,-0.00220
464.00,-0.00220
467.00,-0.00220
470.00,-0.00220
473.00,-0.00220
476.00,-0.00220
479.00,-0.00208
482.00,-0.00220
485.00,-0.00232
488.00,-0.00244
491.00,-0.00232
494.00,-0.00232
497.00,-0.00232
500.00,-0.00220
503.00,-0.00183
506.00,-0.00183
509.00,-0.00171
512.00,-0.00159
515.00,-0.00110
518.00,-0.00061
521.00,0.00037
524.00,0.00122
527.00,0.00183
530.00,0.00208
533.00,0.00244
536.00,0.00269
539.00,0.00317
542.00,0.00354
545.00,0.00391
548.00,0.00403
551.00,0.00439
554.00,0.00476
557.00,0.00513
560.00,0.00623
563.00,0.00793
566.00,0.01025
569.00,0.01294
572.00,0.01624
575.00,0.01978
578.00,0.02368
581.00,0.02783
584.00,0.03149
587.00,0.03516
590.00,0.03809
593.00,0.03979
596.00,0.04089
599.00,0.04175
602.00,0.04309
605.00,0.04504
608.00,0.04773
611.00,0.05103
614.00,0.05444
617.00,0.05786
620.00,0.06128
623.00,0.06396
626.00,0.06531
629.00,0.06531
632.00,0.06445
635.00,0.06287
638.00,0.06140
641.00,0.06018
644.00,0.05872
647.00,0.05713
650.00,0.05554
653.00,0.05457
656.00,0.05432
659.00,0.05432
662.00,0.05371
665.00,0.05200
668.00,0.04858
671.00,0.04321
674.00,0.03674
677.00,0.02954
680.00,0.02246
683.00,0.01636
686.00,0.01160
689.00,0.00781
692.00,0.00452
695.00,0.00232
698.00,0.00061
701.00,-0.00085
704.00,-0.00195
707.00,-0.00269
710.00,-0.00317
713.00,-0.00354
716.00,-0.00378
719.00,-0.00378
722.00,-0.00391
725.00,-0.00391
728.00,-0.00391
731.00,-0.00391
734.00,-0.00403
737.00,-0.00439
740.00,-0.00452
743.00,-0.00452
746.00,-0.00452
749.00,-0.00452
752.00,-0.00439
755.00,-0.00439
758.00,-0.00415
761.00,-0.00391
764.00,-0.00391
767.00,-0.00391
770.00,-0.00391
773.00,-0.00391
776.00,-0.00378
779.00,-0.00378
782.00,-0.00366
785.00,-0.00366
788.00,-0.00330
791.00,-0.00330
794.00,-0.00317
797.00,-0.00317
800.00,-0.00317
803.00,-0.00317
806.00,-0.00305
809.00,-0.00305
812.00,-0.00305
815.00,-0.00293
818.00,-0.00293
821.00,-0.00293
824.00,-0.00281
827.00,-0.00281
830.00,-0.00256
833.00,-0.00244
836.00,-0.00244
839.00,-0.00232
842.00,-0.00220
845.00,-0.00208
848.00,-0.00183
851.00,-0.00159
854.00,-0.00171
857.00,-0.00183
860.00,-0.00171
863.00,-0.00146
866.00,-0.00098
869.00,-0.00073
872.00,-0.00049
875.00,-0.00012
878.00,0.00000
881.00,0.00024
884.00,0.00037
887.00,0.00037
890.00,0.00049
893.00,0.00073
896.00,0.00085
899.00,0.00085
900.00,0.00085