File: docs/batch/data_set7.txt
"135657 - C:\Documents and Settings\User\My Documents\Homogeneous-catalysis\Allen, Lucy\lka1079.015.spc"
"Wavelength nm.","Abs."
200.00,0.22815
203.00,0.06567
206.00,0.03381
209.00,0.13928
212.00,0.02490
215.00,0.07446
218.00,0.00439
221.00,0.14465
224.00,0.30994
227.00,0.29736
230.00,0.27368
233.00,0.24121
236.00,0.20483
239.00,0.17114
242.00,0.14441
245.00,0.12329
248.00,0.10400
251.00,0.08496
254.00,0.06750
257.00,0.05420
260.00,0.04419
263.00,0.03662
266.00,0.03064
269.00,0.02527
272.00,0.01929
275.00,0.01306
278.00,0.00671
281.00,0.00073
284.00,-0.00500
287.00,-0.01025
290.00,-0.01514
293.00,-0.01929
296.00,-0.02258
299.00,0.00403
302.00,0.02319
305.00,0.02063
308.00,0.01807
311.00,0.01575
314.00,0.01367
317.00,0.01196
320.00,0.01086
323.00,0.00989
326.00,0.00891
329.00,0.00818
332.00,0.00745
335.00,0.00659
338.00,0.00586
341.00,0.00439
344.00,0.00281
347.00,0.00195
350.00,0.00134
353.00,0.00061
356.00,-0.00012
359.00,-0.00061
362.00,-0.00098
365.00,-0.00134
368.00,-0.00159
371.00,-0.00183
374.00,-0.00208
377.00,-0.00232
380.00,-0.00269
383.00,-0.00293
386.00,-0.00305
389.00,-0.00317
392.00,-0.00330
395.00,-0.00330
398.00,-0.00354
401.00,-0.00354
404.00,-0.00354
407.00,-0.00366
410.00,-0.00366
413.00,-0.00366
416.00,-0.00342
419.00,-0.00366
422.00,-0.00354
425.00,-0.00354
428.00,-0.00354
431.00,-0.00354
434.00,-0.00330
437.00,-0.00330
440.00,-0.00317
443.00,-0.00330
446.00,-0.00317
449.00,-0.00305
452.00,-0.00305
455.00,-0.00293
458.00,-0.00293
461.00,-0.00293
464.00,-0.00293
467.00,-0.00305
470.00,-0.00305
473.00,-0.00305
476.00,-0.00317
479.00,-0.00317
482.00,-0.00317
485.00,-0.00330
488.00,-0.00342
491.00,-0.00342
494.00,-0.00354
497.00,-0.00354
500.00,-0.00354
503.00,-0.00330
506.00,-0.00354
509.00,-0.00354
512.00,-0.00366
515.00,-0.00354
518.00,-0.00330
521.00,-0.00330
524.00,-0.00293
527.00,-0.00293
530.00,-0.00293
533.00,-0.00293
536.00,-0.00293
539.00,-0.00281
542.00,-0.00269
545.00,-0.00281
548.00,-0.00269
551.00,-0.00256
554.00,-0.00244
557.00,-0.00244
560.00,-0.00220
563.00,-0.00159
566.00,-0.00085
569.00,0.00012
572.00,0.00134
575.00,0.00244
578.00,0.00378
581.00,0.00525
584.00,0.00659
587.00,0.00781
590.00,0.00891
593.00,0.00952
596.00,0.00989
599.00,0.01038
602.00,0.01099
605.00,0.01160
608.00,0.01257
611.00,0.01367
614.00,0.01477
617.00,0.01587
620.00,0.01685
623.00,0.01770
626.00,0.01819
629.00,0.01831
632.00,0.01794
635.00,0.01758
638.00,0.01709
641.00,0.01685
644.00,0.01636
647.00,0.01587
650.00,0.01514
653.00,0.01465
656.00,0.01440
659.00,0.01404
662.00,0.01355
665.00,0.01282
668.00,0.01160
671.00,0.00964
674.00,0.00732
677.00,0.00476
680.00,0.00220
683.00,0.00000
686.00,-0.00195
689.00,-0.00317
692.00,-0.00439
695.00,-0.00525
698.00,-0.00598
701.00,-0.00659
704.00,-0.00684
707.00,-0.00720
710.00,-0.00745
713.00,-0.00745
716.00,-0.00757
719.00,-0.00769
722.00,-0.00781
725.00,-0.00793
728.00,-0.00793
731.00,-0.00793
734.00,-0.00806
737.00,-0.00806
740.00,-0.00806
743.00,-0.00806
746.00,-0.00793
749.00,-0.00793
752.00,-0.00757
755.00,-0.00757
758.00,-0.00757
761.00,-0.00757
764.00,-0.00757
767.00,-0.00757
770.00,-0.00781
773.00,-0.00781
776.00,-0.00781
779.00,-0.00757
782.00,-0.00757
785.00,-0.00745
788.00,-0.00732
791.00,-0.00732
794.00,-0.00732
797.00,-0.00720
800.00,-0.00720
803.00,-0.00720
806.00,-0.00720
809.00,-0.00732
812.00,-0.00732
815.00,-0.00732
818.00,-0.00732
821.00,-0.00720
824.00,-0.00720
827.00,-0.00720
830.00,-0.00708
833.00,-0.00708
836.00,-0.00708
839.00,-0.00708
842.00,-0.00684
845.00,-0.00684
848.00,-0.00671
851.00,-0.00659
854.00,-0.00659
857.00,-0.00659
860.00,-0.00647
863.00,-0.00647
866.00,-0.00623
869.00,-0.00598
872.00,-0.00598
875.00,-0.00586
878.00,-0.00574
881.00,-0.00574
884.00,-0.00574
887.00,-0.00574
890.00,-0.00562
893.00,-0.00549
896.00,-0.00549
899.00,-0.00549
900.00,-0.00549