File: docs/batch/data_set1.txt
"105005 - C:\Documents and Settings\User\My Documents\Homogeneous-catalysis\Allen, Lucy\lka1079.004.spc"
"Wavelength nm.","Abs."
200.00,0.05225
203.00,0.11316
206.00,-0.03015
209.00,-0.00854
212.00,0.00854
215.00,-0.01624
218.00,-0.02124
221.00,0.08032
224.00,0.80615
227.00,1.02161
230.00,0.96423
233.00,0.86145
236.00,0.74487
239.00,0.63538
242.00,0.55054
245.00,0.48047
248.00,0.41382
251.00,0.34814
254.00,0.28943
257.00,0.24097
260.00,0.20544
263.00,0.18005
266.00,0.16064
269.00,0.14233
272.00,0.12317
275.00,0.10400
278.00,0.08643
281.00,0.07117
284.00,0.05933
287.00,0.05029
290.00,0.04297
293.00,0.03674
296.00,0.03076
299.00,0.05457
302.00,0.07043
305.00,0.06360
308.00,0.05627
311.00,0.04968
314.00,0.04382
317.00,0.03870
320.00,0.03503
323.00,0.03247
326.00,0.03027
329.00,0.02869
332.00,0.02673
335.00,0.02490
338.00,0.02307
341.00,0.02075
344.00,0.01855
347.00,0.01648
350.00,0.01440
353.00,0.01257
356.00,0.01099
359.00,0.00977
362.00,0.00891
365.00,0.00830
368.00,0.00781
371.00,0.00757
374.00,0.00745
377.00,0.00745
380.00,0.00708
383.00,0.00696
386.00,0.00696
389.00,0.00696
392.00,0.00696
395.00,0.00696
398.00,0.00696
401.00,0.00696
404.00,0.00696
407.00,0.00696
410.00,0.00696
413.00,0.00708
416.00,0.00720
419.00,0.00708
422.00,0.00720
425.00,0.00720
428.00,0.00708
431.00,0.00708
434.00,0.00732
437.00,0.00732
440.00,0.00732
443.00,0.00732
446.00,0.00745
449.00,0.00745
452.00,0.00745
455.00,0.00745
458.00,0.00757
461.00,0.00757
464.00,0.00769
467.00,0.00769
470.00,0.00781
473.00,0.00806
476.00,0.00818
479.00,0.00830
482.00,0.00830
485.00,0.00830
488.00,0.00830
491.00,0.00830
494.00,0.00842
497.00,0.00842
500.00,0.00879
503.00,0.00916
506.00,0.00940
509.00,0.00964
512.00,0.01001
515.00,0.01062
518.00,0.01147
521.00,0.01270
524.00,0.01404
527.00,0.01501
530.00,0.01563
533.00,0.01611
536.00,0.01685
539.00,0.01770
542.00,0.01831
545.00,0.01892
548.00,0.01953
551.00,0.02014
554.00,0.02087
557.00,0.02185
560.00,0.02356
563.00,0.02612
566.00,0.02954
569.00,0.03369
572.00,0.03833
575.00,0.04333
578.00,0.04871
581.00,0.05432
584.00,0.05969
587.00,0.06482
590.00,0.06909
593.00,0.07190
596.00,0.07349
599.00,0.07483
602.00,0.07654
605.00,0.07922
608.00,0.08289
611.00,0.08728
614.00,0.09204
617.00,0.09668
620.00,0.10120
623.00,0.10510
626.00,0.10718
629.00,0.10754
632.00,0.10632
635.00,0.10437
638.00,0.10242
641.00,0.10059
644.00,0.09863
647.00,0.09607
650.00,0.09363
653.00,0.09192
656.00,0.09119
659.00,0.09070
662.00,0.08972
665.00,0.08691
668.00,0.08203
671.00,0.07458
674.00,0.06506
677.00,0.05481
680.00,0.04517
683.00,0.03662
686.00,0.02966
689.00,0.02441
692.00,0.02002
695.00,0.01660
698.00,0.01428
701.00,0.01208
704.00,0.01074
707.00,0.00964
710.00,0.00879
713.00,0.00818
716.00,0.00793
719.00,0.00769
722.00,0.00757
725.00,0.00745
728.00,0.00745
731.00,0.00745
734.00,0.00732
737.00,0.00732
740.00,0.00732
743.00,0.00732
746.00,0.00745
749.00,0.00745
752.00,0.00745
755.00,0.00745
758.00,0.00745
761.00,0.00757
764.00,0.00757
767.00,0.00757
770.00,0.00769
773.00,0.00769
776.00,0.00769
779.00,0.00793
782.00,0.00806
785.00,0.00818
788.00,0.00830
791.00,0.00830
794.00,0.00842
797.00,0.00854
800.00,0.00879
803.00,0.00879
806.00,0.00891
809.00,0.00891
812.00,0.00891
815.00,0.00903
818.00,0.00903
821.00,0.00928
824.00,0.00952
827.00,0.00977
830.00,0.00989
833.00,0.01001
836.00,0.01038
839.00,0.01050
842.00,0.01062
845.00,0.01099
848.00,0.01111
851.00,0.01160
854.00,0.01172
857.00,0.01184
860.00,0.01208
863.00,0.01245
866.00,0.01270
869.00,0.01306
872.00,0.01331
875.00,0.01367
878.00,0.01404
881.00,0.01416
884.00,0.01453
887.00,0.01465
890.00,0.01465
893.00,0.01489
896.00,0.01526
899.00,0.01538
900.00,0.01550